{
    "$asm.manifest": "http://purl.allotrope.org/manifests/spectrophotometry/BENCHLING/2023/12/spectrophotometry.manifest",
    "spectrophotometry aggregate document": {
        "spectrophotometry document": [
            {
                "measurement aggregate document": {
                    "measurement time": "2023-09-14T16:01:00+00:00",
                    "measurement document": [
                        {
                            "measurement identifier": "THERMO_FISHER_GENESYS30_TEST_ID_0",
                            "device control aggregate document": {
                                "device control document": [
                                    {
                                        "device type": "absorbance detector",
                                        "detection type": "ABS",
                                        "custom information document": {
                                            "operating minimum": {
                                                "value": 325.0,
                                                "unit": "nm"
                                            },
                                            "operating maximum": {
                                                "value": 480.0,
                                                "unit": "nm"
                                            }
                                        }
                                    }
                                ]
                            },
                            "sample document": {
                                "sample identifier": "N/A"
                            },
                            "absorption spectrum data cube": {
                                "label": "absorption spectrum",
                                "cube-structure": {
                                    "dimensions": [
                                        {
                                            "@componentDatatype": "double",
                                            "concept": "wavelength",
                                            "unit": "nm"
                                        }
                                    ],
                                    "measures": [
                                        {
                                            "@componentDatatype": "double",
                                            "concept": "absorbance",
                                            "unit": "mAU"
                                        }
                                    ]
                                },
                                "data": {
                                    "dimensions": [
                                        [
                                            325.0,
                                            326.0,
                                            327.0,
                                            328.0,
                                            329.0,
                                            330.0,
                                            331.0,
                                            332.0,
                                            333.0,
                                            334.0,
                                            335.0,
                                            336.0,
                                            337.0,
                                            338.0,
                                            339.0,
                                            340.0,
                                            341.0,
                                            342.0,
                                            343.0,
                                            344.0,
                                            345.0,
                                            346.0,
                                            347.0,
                                            348.0,
                                            349.0,
                                            350.0,
                                            351.0,
                                            352.0,
                                            353.0,
                                            354.0,
                                            355.0,
                                            356.0,
                                            357.0,
                                            358.0,
                                            359.0,
                                            360.0,
                                            361.0,
                                            362.0,
                                            363.0,
                                            364.0,
                                            365.0,
                                            366.0,
                                            367.0,
                                            368.0,
                                            369.0,
                                            370.0,
                                            371.0,
                                            372.0,
                                            373.0,
                                            374.0,
                                            375.0,
                                            376.0,
                                            377.0,
                                            378.0,
                                            379.0,
                                            380.0,
                                            381.0,
                                            382.0,
                                            383.0,
                                            384.0,
                                            385.0,
                                            386.0,
                                            387.0,
                                            388.0,
                                            389.0,
                                            390.0,
                                            391.0,
                                            392.0,
                                            393.0,
                                            394.0,
                                            395.0,
                                            396.0,
                                            397.0,
                                            398.0,
                                            399.0,
                                            400.0,
                                            401.0,
                                            402.0,
                                            403.0,
                                            404.0,
                                            405.0,
                                            406.0,
                                            407.0,
                                            408.0,
                                            409.0,
                                            410.0,
                                            411.0,
                                            412.0,
                                            413.0,
                                            414.0,
                                            415.0,
                                            416.0,
                                            417.0,
                                            418.0,
                                            419.0,
                                            420.0,
                                            421.0,
                                            422.0,
                                            423.0,
                                            424.0,
                                            425.0,
                                            426.0,
                                            427.0,
                                            428.0,
                                            429.0,
                                            430.0,
                                            431.0,
                                            432.0,
                                            433.0,
                                            434.0,
                                            435.0,
                                            436.0,
                                            437.0,
                                            438.0,
                                            439.0,
                                            440.0,
                                            441.0,
                                            442.0,
                                            443.0,
                                            444.0,
                                            445.0,
                                            446.0,
                                            447.0,
                                            448.0,
                                            449.0,
                                            450.0,
                                            451.0,
                                            452.0,
                                            453.0,
                                            454.0,
                                            455.0,
                                            456.0,
                                            457.0,
                                            458.0,
                                            459.0,
                                            460.0,
                                            461.0,
                                            462.0,
                                            463.0,
                                            464.0,
                                            465.0,
                                            466.0,
                                            467.0,
                                            468.0,
                                            469.0,
                                            470.0,
                                            471.0,
                                            472.0,
                                            473.0,
                                            474.0,
                                            475.0,
                                            476.0,
                                            477.0,
                                            478.0,
                                            479.0,
                                            480.0
                                        ]
                                    ],
                                    "measures": [
                                        [
                                            2.385,
                                            2.45,
                                            2.51,
                                            2.562,
                                            2.608,
                                            2.655,
                                            2.683,
                                            2.715,
                                            2.742,
                                            2.762,
                                            2.786,
                                            2.803,
                                            2.815,
                                            2.826,
                                            2.834,
                                            2.836,
                                            2.837,
                                            2.832,
                                            2.821,
                                            2.789,
                                            2.759,
                                            2.733,
                                            2.701,
                                            2.668,
                                            2.615,
                                            2.549,
                                            2.474,
                                            2.392,
                                            2.312,
                                            2.243,
                                            2.179,
                                            2.116,
                                            2.053,
                                            1.981,
                                            1.921,
                                            1.835,
                                            1.784,
                                            1.728,
                                            1.672,
                                            1.62,
                                            1.572,
                                            1.53,
                                            1.485,
                                            1.44,
                                            1.398,
                                            1.353,
                                            1.312,
                                            1.278,
                                            1.241,
                                            1.208,
                                            1.172,
                                            1.138,
                                            1.108,
                                            1.079,
                                            1.05,
                                            1.022,
                                            0.994,
                                            0.966,
                                            0.942,
                                            0.919,
                                            0.897,
                                            0.875,
                                            0.852,
                                            0.831,
                                            0.812,
                                            0.793,
                                            0.773,
                                            0.754,
                                            0.735,
                                            0.716,
                                            0.701,
                                            0.685,
                                            0.669,
                                            0.653,
                                            0.636,
                                            0.621,
                                            0.608,
                                            0.593,
                                            0.58,
                                            0.565,
                                            0.551,
                                            0.537,
                                            0.525,
                                            0.512,
                                            0.501,
                                            0.488,
                                            0.476,
                                            0.465,
                                            0.454,
                                            0.443,
                                            0.433,
                                            0.421,
                                            0.41,
                                            0.401,
                                            0.392,
                                            0.381,
                                            0.373,
                                            0.363,
                                            0.354,
                                            0.347,
                                            0.338,
                                            0.33,
                                            0.322,
                                            0.314,
                                            0.307,
                                            0.3,
                                            0.294,
                                            0.287,
                                            0.28,
                                            0.274,
                                            0.268,
                                            0.262,
                                            0.257,
                                            0.251,
                                            0.246,
                                            0.24,
                                            0.235,
                                            0.231,
                                            0.226,
                                            0.222,
                                            0.217,
                                            0.213,
                                            0.209,
                                            0.205,
                                            0.201,
                                            0.197,
                                            0.193,
                                            0.19,
                                            0.186,
                                            0.183,
                                            0.18,
                                            0.176,
                                            0.172,
                                            0.169,
                                            0.166,
                                            0.163,
                                            0.16,
                                            0.157,
                                            0.153,
                                            0.151,
                                            0.148,
                                            0.145,
                                            0.142,
                                            0.139,
                                            0.136,
                                            0.133,
                                            0.13,
                                            0.128,
                                            0.125,
                                            0.121,
                                            0.119,
                                            0.116,
                                            0.113,
                                            0.11,
                                            0.107,
                                            0.104
                                        ]
                                    ]
                                }
                            }
                        }
                    ],
                    "experiment type": "Scan",
                    "container type": "tube"
                }
            }
        ],
        "device system document": {
            "device identifier": "N/A",
            "model number": "Genesys 30",
            "brand name": "Genesys",
            "product manufacturer": "Thermo Fisher Scientific"
        },
        "data system document": {
            "file name": "thermo_fisher_genesys30_example_02.csv",
            "software name": "Genesys 30 instrument software",
            "ASM converter name": "allotropy_thermo_fisher_scientific_genesys30",
            "ASM converter version": "0.1.61"
        }
    }
}
